Molybdenum Work Function
----------------------------------
Temperature [K] Phi [eV]
----------------------------------
300 4.9
400 4.89836
500 4.89672
600 4.89508
700 4.89344
800 4.8918
900 4.89016
1000 4.88852
1100 4.88688
1200 4.88524
1300 4.8836
1400 4.88196
1500 4.88032
1600 4.87868
1700 4.87704
1800 4.8754
1900 4.87376
2000 4.87212
2100 4.87048
2200 4.86884
2300 4.8672
2400 4.86556
2500 4.86392
2600 4.86228
2700 4.86064
2800 4.859